
# Total neutron yield =  1.318009e-06  n/decay
	 C12 0.000000e+00
	 C13 1.159548e-06
	 H1 0.000000e+00
	 H2 0.000000e+00
	 O16 0.000000e+00
	 O17 1.681566e-08
	 O18 1.416449e-07
# Integral of spectrum =  1.346931e-06  n/decay
0 3.849285e-13
100 3.992639e-10
200 2.626860e-10
300 2.122811e-10
400 2.433016e-10
500 2.136019e-10
600 2.364549e-10
700 2.610336e-10
800 2.636231e-10
900 2.296377e-10
1000 2.138350e-10
1100 2.200815e-10
1200 2.312537e-10
1300 1.601645e-10
1400 1.475330e-10
1500 1.518650e-10
1600 1.563404e-10
1700 1.625204e-10
1800 1.656679e-10
1900 1.532334e-10
2000 1.440105e-10
2100 1.212825e-10
2200 1.230448e-10
2300 1.258938e-10
2400 1.286961e-10
2500 1.304005e-10
2600 1.310376e-10
2700 1.308104e-10
2800 1.012016e-10
2900 6.073300e-11
3000 5.648337e-11
3100 5.770999e-11
3200 6.050920e-11
3300 6.365042e-11
3400 6.683343e-11
3500 6.942581e-11
3600 7.182107e-11
3700 7.604628e-11
3800 8.216136e-11
3900 8.940999e-11
4000 9.780836e-11
4100 1.077090e-10
4200 1.190745e-10
4300 1.312358e-10
4400 1.436797e-10
4500 1.566200e-10
4600 1.700931e-10
4700 1.835957e-10
4800 1.970773e-10
4900 2.105704e-10
5000 2.237285e-10
5100 2.361471e-10
5200 2.475411e-10
5300 2.577886e-10
5400 2.668634e-10
5500 2.747372e-10
5600 2.813066e-10
5700 2.863428e-10
5800 2.894741e-10
5900 2.902143e-10
6000 2.880853e-10
6100 2.828233e-10
6200 2.744507e-10
6300 2.631361e-10
6400 2.491445e-10
6500 2.329319e-10
6600 2.151055e-10
6700 1.962577e-10
6800 1.768833e-10
6900 1.574074e-10
7000 1.382263e-10
7100 1.197282e-10
7200 1.023015e-10
7300 8.632786e-11
7400 7.215435e-11
7500 6.004540e-11
7600 5.013213e-11
7700 4.237955e-11
7800 3.658883e-11
7900 3.243686e-11
8000 2.953886e-11
8100 2.751113e-11
8200 2.601289e-11
8300 2.475922e-11
8400 2.351277e-11
8500 2.207280e-11
8600 2.028054e-11
8700 1.804677e-11
8800 1.538841e-11
8900 1.244666e-11
9000 9.462237e-12
9100 6.707818e-12
9200 4.405039e-12
9300 2.665363e-12
9400 1.479519e-12
9500 7.508110e-13
9600 3.473636e-13
9700 1.461917e-13
9800 5.586836e-14
9900 1.935970e-14
10000 6.075953e-15
10100 1.725596e-15
10200 4.432852e-16
10300 1.030735e-16
10400 2.181315e-17
10500 4.318425e-18
10600 9.046741e-19
10700 2.838695e-19
10800 1.637342e-19
10900 4.691854e-20
11000 3.572474e-20
11100 6.610797e-22
11200 4.305277e-22
11300 7.321894e-25
11400 3.189984e-25
11500 8.494706e-28
11600 7.240420e-29
11700 2.570729e-30
11800 1.256696e-31
11900 5.497587e-33
12000 2.171776e-34
12100 7.722098e-36
12200 2.471337e-37
12300 7.117864e-39
12400 1.845018e-40
12500 4.303608e-42
12600 9.033282e-44
12700 1.706246e-45
12800 2.899847e-47
12900 4.434674e-49
13000 6.101825e-51
13100 7.553889e-53
13200 8.407839e-55
13300 8.233514e-57
13400 0.000000e+00
13500 0.000000e+00
13600 0.000000e+00
13700 0.000000e+00
13800 0.000000e+00
13900 0.000000e+00
14000 0.000000e+00
14100 0.000000e+00
14200 0.000000e+00
14300 0.000000e+00
14400 0.000000e+00
14500 0.000000e+00
14600 0.000000e+00
14700 0.000000e+00
14800 0.000000e+00
14900 0.000000e+00
15000 0.000000e+00
15100 0.000000e+00
15200 0.000000e+00
15300 0.000000e+00
15400 0.000000e+00
15500 0.000000e+00
15600 0.000000e+00
15700 0.000000e+00
15800 0.000000e+00
15900 0.000000e+00
16000 0.000000e+00
16100 0.000000e+00
16200 0.000000e+00
16300 0.000000e+00
16400 0.000000e+00
16500 0.000000e+00
16600 0.000000e+00
16700 0.000000e+00
16800 0.000000e+00
16900 0.000000e+00
17000 0.000000e+00
